# New G.A.S. format
# filter of AKARI_FIS_WIDE-L
# download from  "Filter Profile Service" (http://svo2.cab.inta-csic.es/theory/fps)
# After the "START" signal, the file is bild as follow:
# Filter name
# nwave: number of wavelenght
# center wavelenght [micron]
# and for l=1 to nwave, lambda [micron] | transmission [without unit]
START
AKARI_FIS_WIDE-L
100
144.93616
105.26000   0.0000000
105.83000   0.0000522
106.39000   0.0001037
106.97000   0.0002506
107.55000   0.0004909
108.14000   0.0006958
108.73000   0.0014545
109.33000   0.0037752
109.94000   0.0084191
110.55000   0.0169220
111.17000   0.0317580
111.80000   0.0593100
112.44000   0.1059700
113.08000   0.1570300
113.73000   0.1705300
114.38000   0.2153500
115.05000   0.3096200
115.72000   0.3651500
116.40000   0.3732900
117.09000   0.4042200
117.79000   0.3919400
118.49000   0.4209400
119.21000   0.4456200
119.93000   0.4573500
120.66000   0.4729400
121.40000   0.4374800
122.15000   0.4882700
122.91000   0.5383000
123.67000   0.5841400
124.45000   0.5726600
125.24000   0.5971100
126.03000   0.7213400
126.84000   0.7517900
127.66000   0.7510400
128.49000   0.7577800
129.33000   0.7904800
130.18000   0.8377400
131.04000   0.8316800
131.91000   0.8097800
132.80000   0.7498100
133.69000   0.7643900
134.60000   0.8634100
135.52000   0.8881500
136.46000   0.8802700
137.40000   0.8416300
138.36000   0.8694700
139.34000   0.9127100
140.33000   1.0380000
141.33000   1.0945000
142.34000   1.0435000
143.37000   1.1284000
144.42000   1.1397000
145.48000   1.1688000
146.56000   1.2041000
147.65000   1.1914000
148.76000   1.2639000
149.89000   1.2310000
151.03000   1.1904000
152.19000   1.0907000
153.37000   1.0572000
154.57000   1.0703000
155.78000   1.0459000
157.02000   1.0445000
158.27000   0.9534000
159.55000   0.8366800
160.84000   0.7502300
162.16000   0.6928300
163.50000   0.6593000
164.86000   0.6184600
166.25000   0.5955200
167.65000   0.5942900
169.09000   0.5685900
170.54000   0.5525400
172.02000   0.5383100
173.53000   0.5535900
175.07000   0.6287500
176.63000   0.6084600
178.22000   0.4286800
179.84000   0.3143500
181.48000   0.2919500
183.16000   0.3128400
184.87000   0.3215100
186.62000   0.2514700
188.39000   0.1782400
190.20000   0.1363300
192.05000   0.1150600
193.93000   0.0927280
195.85000   0.0780980
197.80000   0.0659900
199.80000   0.0535870
201.83000   0.0419660
203.91000   0.0267910
206.04000   0.0169920
208.20000   0.0084500
210.41000   0.0027219
212.67000   0.0000000
214.98000   0.0000000
217.34000   0.0000000
219.76000   0.0000000
222.22000   0.0000000
