# New G.A.S. format
# filter of AKARI_FIS_N60
# download from  "Filter Profile Service" (http://svo2.cab.inta-csic.es/theory/fps)
# After the "START" signal, the file is bild as follow:
# Filter name
# nwave: number of wavelenght
# center wavelenght [micron]
# and for l=1 to nwave, lambda [micron] | transmission [without unit]
START
AKARI_FIS_N60
063
66.29125
42.78800   0.0018516
43.16200   0.0004723
43.54100   0.0017489
43.92800   0.0000000
44.32100   0.0000000
44.72100   0.0036675
45.12900   0.0095341
45.54400   0.0223330
45.96700   0.0414330
46.39800   0.0820910
46.83700   0.1062900
47.28500   0.1182000
47.74100   0.1264400
48.20600   0.1265800
48.68000   0.1472400
49.16300   0.1345700
49.65600   0.1079200
50.16000   0.0687630
50.67300   0.0386550
51.19700   0.0426460
51.73200   0.0750000
52.27900   0.1728700
52.83700   0.2814000
53.40700   0.2154500
53.98900   0.1852100
54.58500   0.2388500
55.19300   0.2946400
55.81600   0.4009400
56.45200   0.4614100
57.10300   0.5733300
57.77000   0.5957100
58.45200   0.5927300
59.15100   0.5364200
59.86600   0.5649900
60.59900   0.5734500
61.35000   0.6349100
62.12000   0.7332900
62.90900   0.9674900
63.71900   0.9723100
64.55000   0.9846500
65.40300   1.0144000
66.27900   0.9980400
67.17800   0.9991200
68.10300   1.0675000
69.05300   1.0940000
70.03000   1.0981000
71.03500   1.0837000
72.06900   0.9844200
73.13400   0.8755500
74.23000   0.7529500
75.36100   0.5874500
76.52600   0.4152100
77.72700   0.4294400
78.96700   0.3306900
80.24800   0.1693200
81.57000   0.0985150
82.93700   0.0510250
84.35000   0.0184440
85.81200   0.0040412
87.32600   0.0026523
88.89500   0.0045075
90.52000   0.0045456
92.20600   0.0015406
