# New G.A.S. format
# filter of AKARI_FIS_WIDE-S
# download from  "Filter Profile Service" (http://svo2.cab.inta-csic.es/theory/fps)
# After the "START" signal, the file is bild as follow:
# Filter name
# nwave: number of wavelenght
# center wavelenght [micron]
# and for l=1 to nwave, lambda [micron] | transmission [without unit]
START
AKARI_FIS_WIDE-S
079
94.29585
42.78800   0.0006808
43.16200   0.0010063
43.54100   0.0014241
43.92800   0.0021504
44.32100   0.0028245
44.72100   0.0043461
45.12900   0.0069675
45.54400   0.0106230
45.96700   0.0192630
46.39800   0.0334470
46.83700   0.0430240
47.28500   0.0460490
47.74100   0.0460410
48.20600   0.0553710
48.68000   0.0563450
49.16300   0.0436420
49.65600   0.0400310
50.16000   0.0233130
50.67300   0.0127950
51.19700   0.0153530
51.73200   0.0333480
52.27900   0.0766860
52.83700   0.0974420
53.40700   0.0694510
53.98900   0.0700470
54.58500   0.0880340
55.19300   0.1162300
55.81600   0.1409000
56.45200   0.1679600
57.10300   0.2065000
57.77000   0.2060800
58.45200   0.1887200
59.15100   0.1932600
59.86600   0.1910000
60.59900   0.2013600
61.35000   0.2203100
62.12000   0.2630800
62.90900   0.3273700
63.71900   0.3522300
64.55000   0.3483200
65.40300   0.3645300
66.27900   0.3313600
67.17800   0.4069900
68.10300   0.4244900
69.05300   0.4464500
70.03000   0.4727100
71.03500   0.4785600
72.06900   0.5123900
73.13400   0.4945200
74.23000   0.4661900
75.36100   0.4199700
76.52600   0.5159000
77.72700   0.5032100
78.96700   0.5131000
80.24800   0.5413300
81.57000   0.6993600
82.93700   0.8572700
84.35000   0.9668500
85.81200   1.0144000
87.32600   1.0023000
88.89500   0.9878100
90.52000   0.9995100
92.20600   1.0142000
93.95700   1.0521000
95.77500   1.1476000
97.66400   1.1627000
99.63000   1.1995000
101.68000   1.2052000
103.81000   1.0742000
106.03000   0.8527100
108.35000   0.5305500
110.78000   0.2651800
113.31000   0.1501600
115.97000   0.0755020
118.75000   0.0339000
121.67000   0.0147440
124.74000   0.0052487
127.96000   0.0015588
131.36000   0.0008304
