# New G.A.S. format
# filter of VIMOS_R
# download from  "Filter Profile Service" (http://svo2.cab.inta-csic.es/theory/fps)
# After the "START" signal, the file is bild as follow:
# Filter name
# nwave: number of wavelenght
# center wavelenght [micron]
# and for l=1 to nwave, lambda [micron] | transmission [without unit]
START
VIMOS_R
234
0.64591
0.55974   0.0015680
0.56045   0.0020470
0.56116   0.0030530
0.56187   0.0042520
0.56258   0.0057670
0.56329   0.0076890
0.56400   0.0099580
0.56471   0.0127730
0.56543   0.0150520
0.56614   0.0187620
0.56685   0.0231280
0.56756   0.0272780
0.56827   0.0325280
0.56898   0.0380930
0.56969   0.0440840
0.57040   0.0504230
0.57112   0.0570030
0.57183   0.0637490
0.57254   0.0706570
0.57325   0.0776500
0.57396   0.0846850
0.57467   0.0917510
0.57538   0.0987500
0.57609   0.1056790
0.57680   0.1124660
0.57752   0.1192170
0.57823   0.1257900
0.57894   0.1322090
0.57965   0.1384530
0.58036   0.1446060
0.58107   0.1504810
0.58178   0.1561560
0.58249   0.1616760
0.58321   0.1669370
0.58392   0.1719870
0.58463   0.1769510
0.58534   0.1816360
0.58605   0.1860610
0.58676   0.1903320
0.58747   0.1943470
0.58818   0.1982220
0.58889   0.2019060
0.58961   0.2053360
0.59032   0.2087180
0.59103   0.2117850
0.59174   0.2147450
0.59245   0.2175410
0.59316   0.2201910
0.59387   0.2226730
0.59458   0.2249460
0.59529   0.2272150
0.59601   0.2292900
0.59672   0.2312310
0.59743   0.2330470
0.59814   0.2347570
0.59885   0.2363510
0.59956   0.2377680
0.60027   0.2393160
0.60098   0.2405400
0.60169   0.2418290
0.60241   0.2429680
0.60312   0.2440150
0.60383   0.2449920
0.60454   0.2458980
0.60525   0.2468210
0.60596   0.2475170
0.60667   0.2483990
0.60738   0.2489790
0.60810   0.2496700
0.60881   0.2502370
0.60952   0.2508300
0.61023   0.2512130
0.61094   0.2518010
0.61165   0.2521090
0.61236   0.2525410
0.61307   0.2529300
0.61378   0.2531270
0.61450   0.2535300
0.61521   0.2536700
0.61592   0.2540110
0.61663   0.2541630
0.61734   0.2543740
0.61805   0.2544710
0.61876   0.2547090
0.61947   0.2546750
0.62019   0.2548650
0.62090   0.2548730
0.62161   0.2548530
0.62232   0.2548930
0.62303   0.2549950
0.62374   0.2548400
0.62445   0.2549030
0.62516   0.2548650
0.62587   0.2548270
0.62659   0.2546750
0.62730   0.2545960
0.62801   0.2544930
0.62872   0.2543920
0.62943   0.2543440
0.63014   0.2540550
0.63085   0.2539820
0.63156   0.2538220
0.63227   0.2536620
0.63299   0.2535650
0.63370   0.2532880
0.63441   0.2531010
0.63512   0.2529780
0.63583   0.2526940
0.63654   0.2525660
0.63725   0.2524260
0.63796   0.2521280
0.63867   0.2518960
0.63939   0.2517500
0.64010   0.2515220
0.64081   0.2513720
0.64152   0.2511300
0.64223   0.2509760
0.64294   0.2507500
0.64365   0.2505960
0.64436   0.2504330
0.64508   0.2501290
0.64579   0.2498940
0.64650   0.2497420
0.64721   0.2495980
0.64792   0.2494480
0.64863   0.2492280
0.64934   0.2490890
0.65005   0.2489420
0.65076   0.2487960
0.65148   0.2486590
0.65219   0.2485230
0.65290   0.2483090
0.65361   0.2481720
0.65432   0.2480360
0.65503   0.2478980
0.65574   0.2477600
0.65645   0.2476180
0.65716   0.2474740
0.65788   0.2473270
0.65859   0.2472650
0.65930   0.2471090
0.66001   0.2469470
0.66072   0.2467880
0.66143   0.2465450
0.66214   0.2463710
0.66285   0.2461810
0.66356   0.2460710
0.66428   0.2459380
0.66499   0.2457270
0.66570   0.2454970
0.66641   0.2452620
0.66712   0.2450980
0.66783   0.2448390
0.66854   0.2445680
0.66925   0.2442840
0.66997   0.2440750
0.67068   0.2437640
0.67139   0.2435160
0.67210   0.2432590
0.67281   0.2429160
0.67352   0.2426190
0.67423   0.2423320
0.67494   0.2419440
0.67565   0.2415530
0.67637   0.2412320
0.67708   0.2408130
0.67779   0.2405350
0.67850   0.2401890
0.67921   0.2397490
0.67992   0.2393110
0.68063   0.2389500
0.68134   0.2385720
0.68206   0.2382030
0.68277   0.2378390
0.68348   0.2373970
0.68419   0.2371040
0.68490   0.2367430
0.68561   0.2363220
0.68632   0.2359790
0.68703   0.2356280
0.68774   0.2352980
0.68846   0.2349760
0.68917   0.2347240
0.68988   0.2343390
0.69059   0.2340220
0.69130   0.2337130
0.69201   0.2333950
0.69272   0.2330760
0.69343   0.2328120
0.69414   0.2323900
0.69486   0.2320150
0.69557   0.2316700
0.69628   0.2312200
0.69699   0.2306250
0.69770   0.2301800
0.69841   0.2294300
0.69912   0.2287070
0.69983   0.2277880
0.70054   0.2266440
0.70126   0.2255280
0.70197   0.2239900
0.70268   0.2224110
0.70339   0.2203390
0.70410   0.2179390
0.70481   0.2153650
0.70552   0.2121630
0.70623   0.2086690
0.70695   0.2044340
0.70766   0.1997670
0.70837   0.1942220
0.70908   0.1880090
0.70979   0.1808910
0.71050   0.1728450
0.71121   0.1636890
0.71192   0.1533670
0.71263   0.1416540
0.71335   0.1286190
0.71406   0.1138670
0.71477   0.0974540
0.71548   0.0790330
0.71619   0.0647930
0.71690   0.0484530
0.71761   0.0368160
0.71832   0.0240500
0.71904   0.0155670
0.71975   0.0103840
0.72046   0.0075580
0.72117   0.0056540
0.72188   0.0041150
0.72259   0.0030200
0.72330   0.0023400
0.72401   0.0017090
0.72472   0.0013860
0.72544   0.0010450
