# New G.A.S. format
# filter of Planck_F353
# download from  "Filter Profile Service" (http://svo2.cab.inta-csic.es/theory/fps)
# Wavelenght table as been reduced by a factor 8
# After the "START" signal, the file is bild as follow:
# Filter name
# nwave: number of wavelenght
# center wavelenght [micron]
# and for l=1 to nwave, lambda [micron] | transmission [without unit]
START
Planck_F353
118
849.27042
361.66366   0.0000000
366.97248   0.0000000
372.43947   0.0000000
378.07182   0.0000001
383.87717   0.0000009
389.86355   0.0000077
396.03960   0.0000156
402.41448   0.0000037
408.99794   0.0000019
415.80043   0.0000009
422.83299   0.0000010
430.10753   0.0000026
437.63675   0.0000015
445.43428   0.0000010
453.51475   0.0000008
461.89377   0.0000014
470.58824   0.0000024
479.61630   0.0000043
488.99754   0.0000063
498.75314   0.0000058
508.90586   0.0000113
519.48052   0.0000404
530.50397   0.0001295
542.00540   0.0001521
554.01664   0.0002323
566.57225   0.0003525
579.71014   0.0001742
593.47180   0.0006181
607.90271   0.0007630
623.05299   0.0011799
638.97765   0.0009596
655.73770   0.0031736
673.40066   0.0111747
691.99340   0.0446554
698.51393   0.0797021
705.15851   0.1118588
711.93078   0.1686484
718.83433   0.2399167
725.87308   0.2829254
733.05109   0.4309727
740.37243   0.6110007
747.84154   0.7923227
755.46284   0.8369616
763.24107   0.8842021
771.18120   0.7806718
779.28821   0.7667121
787.56748   0.7587734
796.02461   0.5793792
804.66529   0.6292332
813.49562   0.7466755
822.52196   0.8992391
831.75079   0.9170042
841.18908   0.9193381
850.84409   0.9453054
860.72324   0.9645686
866.21017   0.9814403
867.08906   0.9792945
868.09569   0.9754273
868.97841   0.9878867
869.86292   0.9980528
870.83457   0.9738585
871.76440   0.9260039
872.65459   0.8874435
873.54661   0.8660464
874.56830   0.8577348
875.46424   0.8665476
876.36201   0.8806623
877.27565   0.8754774
878.29204   0.8462094
879.19562   0.8231346
880.10114   0.8101179
881.13824   0.8015802
882.04769   0.7981340
882.95902   0.8004385
883.87224   0.8143259
884.91825   0.8415728
885.83552   0.8534931
886.75471   0.8388538
887.78192   0.8084324
888.73083   0.8000838
889.65603   0.8237215
890.58316   0.8602382
891.64512   0.8705342
892.57641   0.8386637
893.50971   0.8044307
894.47710   0.7982979
895.51609   0.8072538
896.45548   0.8070525
897.39685   0.8005294
898.47513   0.7906497
899.42074   0.7783033
900.36835   0.7630362
901.31795   0.7546310
902.40568   0.7651258
903.35959   0.7791150
904.31552   0.7828150
905.40206   0.7782502
906.37078   0.7633107
907.33309   0.7350894
908.29753   0.7128710
909.40210   0.7221163
910.37095   0.7600771
911.34178   0.8009343
912.36668   0.8132303
923.73571   0.7225788
935.39165   0.5350549
947.34559   0.5137360
959.60893   0.5274360
972.19393   0.4781661
985.11351   0.3371932
998.38100   0.0875127
1012.01083   0.0005613
1026.01787   0.0000330
1040.41808   0.0000041
1055.22837   0.0000007
1070.46629   0.0000002
1086.15073   0.0000000
1102.30175   0.0000000
