# New G.A.S. format
# filter of Megaprime_i
# download from  "Filter Profile Service" (http://svo2.cab.inta-csic.es/theory/fps)
# After the "START" signal, the file is bild as follow:
# Filter name
# nwave: number of wavelenght
# center wavelenght [micron]
# and for l=1 to nwave, lambda [micron] | transmission [without unit]
START
Megaprime_i
110
0.77762
0.66600   0.0036300
0.66800   0.0045600
0.67000   0.0058100
0.67200   0.0074500
0.67400   0.0095800
0.67600   0.0124500
0.67800   0.0162500
0.68000   0.0213600
0.68200   0.0283400
0.68400   0.0379000
0.68600   0.0511900
0.68800   0.0695000
0.69000   0.0945600
0.69200   0.1286200
0.69400   0.1737700
0.69600   0.2319300
0.69800   0.3033300
0.70000   0.3865200
0.70200   0.4788500
0.70400   0.5757000
0.70600   0.6704300
0.70800   0.7568700
0.71000   0.8293000
0.71200   0.8844000
0.71400   0.9229700
0.71600   0.9467600
0.71800   0.9597200
0.72000   0.9651300
0.72200   0.9661100
0.72400   0.9647500
0.72600   0.9620100
0.72800   0.9594300
0.73000   0.9567300
0.73200   0.9550500
0.73400   0.9542800
0.73600   0.9539300
0.73800   0.9542500
0.74000   0.9548800
0.74200   0.9555100
0.74400   0.9559300
0.74600   0.9565600
0.74800   0.9561600
0.75000   0.9552900
0.75200   0.9539800
0.75400   0.9515700
0.75600   0.9489100
0.75800   0.9461100
0.76000   0.9432100
0.76200   0.9405100
0.76400   0.9379900
0.76600   0.9370300
0.76800   0.9368900
0.77000   0.9379100
0.77200   0.9406000
0.77400   0.9437700
0.77600   0.9476000
0.77800   0.9523600
0.78000   0.9579200
0.78200   0.9631200
0.78400   0.9676800
0.78600   0.9719400
0.78800   0.9749100
0.79000   0.9763500
0.79200   0.9767500
0.79400   0.9751300
0.79600   0.9722000
0.79800   0.9687700
0.80000   0.9651800
0.80200   0.9614100
0.80400   0.9579000
0.80600   0.9554000
0.80800   0.9542500
0.81000   0.9543800
0.81200   0.9558000
0.81400   0.9565600
0.81600   0.9560900
0.81800   0.9539000
0.82000   0.9481800
0.82200   0.9393900
0.82400   0.9261600
0.82600   0.9093600
0.82800   0.8853600
0.83000   0.8571000
0.83200   0.8280300
0.83400   0.7999000
0.83600   0.7816300
0.83800   0.7691800
0.84000   0.7587100
0.84200   0.7472500
0.84400   0.7335100
0.84600   0.7061300
0.84800   0.6680600
0.85000   0.6096200
0.85200   0.5324100
0.85400   0.4471700
0.85600   0.3535000
0.85800   0.2748700
0.86000   0.1988100
0.86200   0.1379200
0.86400   0.0994700
0.86600   0.0680700
0.86800   0.0488300
0.87000   0.0367300
0.87200   0.0235000
0.87400   0.0152700
0.87600   0.0113500
0.87800   0.0096400
0.88000   0.0086200
0.88200   0.0056300
0.88400   0.0043900
