# New G.A.S. format
# filter of Megaprime_z
# download from  "Filter Profile Service" (http://svo2.cab.inta-csic.es/theory/fps)
# After the "START" signal, the file is bild as follow:
# Filter name
# nwave: number of wavelenght
# center wavelenght [micron]
# and for l=1 to nwave, lambda [micron] | transmission [without unit]
START
Megaprime_z
205
1.01340
0.79200   0.0038600
0.79400   0.0046100
0.79600   0.0055800
0.79800   0.0068500
0.80000   0.0085000
0.80200   0.0107000
0.80400   0.0137300
0.80600   0.0178800
0.80800   0.0237700
0.81000   0.0321200
0.81200   0.0440800
0.81400   0.0614800
0.81600   0.0866200
0.81800   0.1224100
0.82000   0.1718400
0.82200   0.2384600
0.82400   0.3241100
0.82600   0.4240900
0.82800   0.5470100
0.83000   0.6565200
0.83200   0.7487800
0.83400   0.8217000
0.83600   0.8638800
0.83800   0.8958400
0.84000   0.9138900
0.84200   0.9139600
0.84400   0.9139100
0.84600   0.9086600
0.84800   0.9096200
0.85000   0.9220100
0.85200   0.9245000
0.85400   0.9327700
0.85600   0.9371500
0.85800   0.9379300
0.86000   0.9370300
0.86200   0.9349500
0.86400   0.9324300
0.86600   0.9305300
0.86800   0.9273800
0.87000   0.9221300
0.87200   0.9197200
0.87400   0.9168500
0.87600   0.9115600
0.87800   0.9097700
0.88000   0.9041400
0.88200   0.9038500
0.88400   0.9072700
0.88600   0.9073900
0.88800   0.9067100
0.89000   0.9048900
0.89200   0.9029500
0.89400   0.9088000
0.89600   0.9108300
0.89800   0.9114400
0.90000   0.9163100
0.90200   0.9134500
0.90400   0.9157300
0.90600   0.9137700
0.90800   0.9104600
0.91000   0.9079000
0.91200   0.9074400
0.91400   0.9064600
0.91600   0.9039500
0.91800   0.9003300
0.92000   0.8958900
0.92200   0.8924300
0.92400   0.8887000
0.92600   0.8879100
0.92800   0.8871300
0.93000   0.8865500
0.93200   0.8883100
0.93400   0.8882100
0.93600   0.8854400
0.93800   0.8851500
0.94000   0.8841400
0.94200   0.8848600
0.94400   0.8876200
0.94600   0.8906900
0.94800   0.8916900
0.95000   0.8937700
0.95200   0.8961000
0.95400   0.8988600
0.95600   0.9026800
0.95800   0.9075500
0.96000   0.9120300
0.96200   0.9158600
0.96400   0.9184000
0.96600   0.9196600
0.96800   0.9209900
0.97000   0.9219500
0.97200   0.9249300
0.97400   0.9242200
0.97600   0.9247300
0.97800   0.9249400
0.98000   0.9243200
0.98200   0.9264400
0.98400   0.9259300
0.98600   0.9260900
0.98800   0.9251700
0.99000   0.9235400
0.99200   0.9215100
0.99400   0.9187800
0.99600   0.9165500
0.99800   0.9133800
1.00000   0.9124600
1.00200   0.9105800
1.00400   0.9082300
1.00600   0.9073900
1.00800   0.9057300
1.01000   0.9051400
1.01200   0.9060500
1.01400   0.9052900
1.01600   0.9053800
1.01800   0.9056100
1.02000   0.9058100
1.02200   0.9071400
1.02400   0.9081400
1.02600   0.9103500
1.02800   0.9117100
1.03000   0.9136700
1.03200   0.9163200
1.03400   0.9174800
1.03600   0.9192000
1.03800   0.9207800
1.04000   0.9229000
1.04200   0.9256100
1.04400   0.9287300
1.04600   0.9319800
1.04800   0.9340400
1.05000   0.9360400
1.05200   0.9371200
1.05400   0.9387700
1.05600   0.9398800
1.05800   0.9411900
1.06000   0.9425400
1.06200   0.9440000
1.06400   0.9454500
1.06600   0.9464100
1.06800   0.9476800
1.07000   0.9477400
1.07200   0.9477700
1.07400   0.9477100
1.07600   0.9466700
1.07800   0.9468200
1.08000   0.9471400
1.08200   0.9470200
1.08400   0.9465300
1.08600   0.9454000
1.08800   0.9439800
1.09000   0.9426700
1.09200   0.9419400
1.09400   0.9409900
1.09600   0.9401400
1.09800   0.9395000
1.10000   0.9387500
1.10200   0.9373900
1.10400   0.9369500
1.10600   0.9361400
1.10800   0.9351200
1.11000   0.9340700
1.11200   0.9332100
1.11400   0.9332700
1.11600   0.9332000
1.11800   0.9333600
1.12000   0.9335000
1.12200   0.9328600
1.12400   0.9338400
1.12600   0.9341900
1.12800   0.9343100
1.13000   0.9344900
1.13200   0.9343300
1.13400   0.9353300
1.13600   0.9354400
1.13800   0.9362800
1.14000   0.9366000
1.14200   0.9358200
1.14400   0.9366900
1.14600   0.9368000
1.14800   0.9370400
1.15000   0.9381300
1.15200   0.9387400
1.15400   0.9396100
1.15600   0.9394800
1.15800   0.9400200
1.16000   0.9397900
1.16200   0.9402300
1.16400   0.9410200
1.16600   0.9413100
1.16800   0.9417600
1.17000   0.9415100
1.17200   0.9420300
1.17400   0.9415400
1.17600   0.9418600
1.17800   0.9420000
1.18000   0.9415300
1.18200   0.9421500
1.18400   0.9419900
1.18600   0.9419900
1.18800   0.9424700
1.19000   0.9417100
1.19200   0.9412200
1.19400   0.9409900
1.19600   0.9402500
1.19800   0.9406900
1.20000   0.9404100
