# New G.A.S. format
# filter of SDSS III i band (~0.75 micron)
# After the "START" signal, the file is bild as follow:
# File name
# nwave: number of wavelenght
# center wavelenght [micron]
# and for l=1 to nwave, lambda [micron] | transmission [without unit]
START
SDSS_i
89
0.7481
0.6430   0.0000
0.6455   0.0001
0.6480   0.0003
0.6505   0.0004
0.6530   0.0004
0.6555   0.0003
0.6580   0.0003
0.6605   0.0004
0.6630   0.0009
0.6655   0.0019
0.6680   0.0034
0.6705   0.0056
0.6730   0.0103
0.6755   0.0194
0.6780   0.0344
0.6805   0.0561
0.6830   0.0839
0.6855   0.1164
0.6880   0.1528
0.6905   0.1948
0.6930   0.2408
0.6955   0.2857
0.6980   0.3233
0.7005   0.3503
0.7030   0.3759
0.7055   0.3990
0.7080   0.4162
0.7105   0.4233
0.7130   0.4165
0.7155   0.3943
0.7180   0.3760
0.7205   0.3823
0.7230   0.3918
0.7255   0.3892
0.7280   0.3828
0.7305   0.3820
0.7330   0.3884
0.7355   0.3872
0.7380   0.3821
0.7405   0.3787
0.7430   0.3759
0.7455   0.3727
0.7480   0.3681
0.7505   0.3618
0.7530   0.3565
0.7555   0.3554
0.7580   0.3478
0.7605   0.1473
0.7630   0.2096
0.7655   0.2648
0.7680   0.3300
0.7705   0.3256
0.7730   0.3223
0.7755   0.3179
0.7780   0.3129
0.7805   0.3077
0.7830   0.3026
0.7855   0.2980
0.7880   0.2944
0.7905   0.2921
0.7930   0.2916
0.7955   0.2921
0.7980   0.2927
0.8005   0.2923
0.8030   0.2896
0.8055   0.2840
0.8080   0.2758
0.8105   0.2642
0.8130   0.2427
0.8155   0.2091
0.8180   0.1689
0.8205   0.1276
0.8230   0.0901
0.8255   0.0603
0.8280   0.0378
0.8305   0.0218
0.8330   0.0117
0.8355   0.0068
0.8380   0.0048
0.8405   0.0033
0.8430   0.0020
0.8455   0.0013
0.8480   0.0010
0.8505   0.0009
0.8530   0.0009
0.8555   0.0008
0.8580   0.0005
0.8605   0.0002
0.8630   0.0000
