# New G.A.S. format
# filter of Hershel PACS 100 micron
# download from  "Filter Profile Service" (http://svo2.cab.inta-csic.es/theory/fps)
# the number of effective wavelenght has beed reduced (1/3)
# After the "START" signal, the file is bild as follow:
# File name
# nwave: number of wavelenght
# center wavelenght [micron]
# and for l=1 to nwave, lambda [micron] | transmission [without unit]
START
PACS_100
108
102.3
 0.6711E+02    0.1700E-04
 0.6745E+02    0.2200E-04
 0.6780E+02    0.6700E-04
 0.6814E+02    0.7800E-04
 0.6849E+02    0.7200E-04
 0.6885E+02    0.1090E-03
 0.6920E+02    0.4150E-03
 0.6957E+02    0.5560E-03
 0.6993E+02    0.3050E-03
 0.7030E+02    0.2270E-03
 0.7067E+02    0.6780E-03
 0.7105E+02    0.1176E-02
 0.7143E+02    0.1425E-02
 0.7181E+02    0.1379E-02
 0.7220E+02    0.9400E-03
 0.7260E+02    0.6210E-03
 0.7299E+02    0.7200E-04
 0.7339E+02    0.2500E-04
 0.7380E+02    0.9100E-04
 0.7421E+02    0.3570E-03
 0.7463E+02    0.4300E-03
 0.7505E+02    0.1520E-03
 0.7547E+02    0.2190E-03
 0.7590E+02    0.8530E-03
 0.7634E+02    0.8780E-03
 0.7678E+02    0.1077E-02
 0.7722E+02    0.1466E-02
 0.7767E+02    0.2018E-02
 0.7812E+02    0.2488E-02
 0.7859E+02    0.3206E-02
 0.7905E+02    0.5176E-02
 0.7952E+02    0.8375E-02
 0.8000E+02    0.1223E-01
 0.8048E+02    0.1803E-01
 0.8097E+02    0.2811E-01
 0.8147E+02    0.4504E-01
 0.8197E+02    0.6685E-01
 0.8247E+02    0.1008E+00
 0.8299E+02    0.1491E+00
 0.8351E+02    0.2057E+00
 0.8403E+02    0.2596E+00
 0.8457E+02    0.2966E+00
 0.8511E+02    0.3415E+00
 0.8565E+02    0.3928E+00
 0.8621E+02    0.4296E+00
 0.8677E+02    0.4437E+00
 0.8734E+02    0.4415E+00
 0.8791E+02    0.4334E+00
 0.8850E+02    0.4256E+00
 0.8909E+02    0.4166E+00
 0.8969E+02    0.4064E+00
 0.9029E+02    0.4076E+00
 0.9091E+02    0.4295E+00
 0.9153E+02    0.4604E+00
 0.9217E+02    0.4926E+00
 0.9281E+02    0.5235E+00
 0.9346E+02    0.5498E+00
 0.9412E+02    0.5659E+00
 0.9479E+02    0.5705E+00
 0.9547E+02    0.5758E+00
 0.9615E+02    0.5786E+00
 0.9685E+02    0.5800E+00
 0.9756E+02    0.5812E+00
 0.9828E+02    0.5819E+00
 0.9901E+02    0.5752E+00
 0.9975E+02    0.5568E+00
 0.1005E+03    0.5441E+00
 0.1013E+03    0.5278E+00
 0.1020E+03    0.5207E+00
 0.1028E+03    0.5146E+00
 0.1036E+03    0.5108E+00
 0.1044E+03    0.4944E+00
 0.1053E+03    0.4734E+00
 0.1061E+03    0.4552E+00
 0.1070E+03    0.4559E+00
 0.1078E+03    0.4590E+00
 0.1087E+03    0.4577E+00
 0.1096E+03    0.4510E+00
 0.1105E+03    0.4457E+00
 0.1114E+03    0.4421E+00
 0.1124E+03    0.4361E+00
 0.1133E+03    0.4271E+00
 0.1143E+03    0.4121E+00
 0.1153E+03    0.3973E+00
 0.1163E+03    0.3792E+00
 0.1173E+03    0.3616E+00
 0.1183E+03    0.3401E+00
 0.1194E+03    0.3132E+00
 0.1205E+03    0.2799E+00
 0.1216E+03    0.2397E+00
 0.1227E+03    0.1941E+00
 0.1238E+03    0.1460E+00
 0.1250E+03    0.1014E+00
 0.1262E+03    0.6308E-01
 0.1274E+03    0.3558E-01
 0.1286E+03    0.1763E-01
 0.1299E+03    0.8720E-02
 0.1311E+03    0.6234E-02
 0.1324E+03    0.6174E-02
 0.1338E+03    0.6552E-02
 0.1351E+03    0.5838E-02
 0.1365E+03    0.4754E-02
 0.1379E+03    0.3483E-02
 0.1394E+03    0.2237E-02
 0.1408E+03    0.1316E-02
 0.1423E+03    0.6720E-03
 0.1439E+03    0.3540E-03
 0.1455E+03    0.1690E-03
