# New G.A.S. format
# filter of VISTA CAM z band
# download from  "Filter Profile Service" (http://svo2.cab.inta-csic.es/theory/fps)
# the number of effective wavelenght has beed reduced (1/2)
# After the "START" signal, the file is bild as follow:
# File name
# nwave: number of wavelenght
# center wavelenght [micron]
# and for l=1 to nwave, lambda [micron] | transmission [without unit]
START
VISTA_z
81
0.878
 0.7870E+00    0.1000E-03
 0.7890E+00    0.1000E-03
 0.7910E+00    0.1000E-03
 0.7930E+00    0.1000E-03
 0.7950E+00    0.2000E-03
 0.7970E+00    0.3000E-03
 0.7990E+00    0.6000E-03
 0.8010E+00    0.8000E-03
 0.8030E+00    0.1100E-02
 0.8050E+00    0.1400E-02
 0.8070E+00    0.1700E-02
 0.8090E+00    0.2100E-02
 0.8110E+00    0.2900E-02
 0.8130E+00    0.4300E-02
 0.8150E+00    0.7800E-02
 0.8170E+00    0.1400E-01
 0.8190E+00    0.2650E-01
 0.8210E+00    0.5240E-01
 0.8230E+00    0.1120E+00
 0.8250E+00    0.1960E+00
 0.8270E+00    0.3178E+00
 0.8290E+00    0.4672E+00
 0.8310E+00    0.6556E+00
 0.8330E+00    0.7954E+00
 0.8350E+00    0.8834E+00
 0.8370E+00    0.9149E+00
 0.8390E+00    0.9135E+00
 0.8410E+00    0.9092E+00
 0.8430E+00    0.9101E+00
 0.8450E+00    0.9180E+00
 0.8470E+00    0.9331E+00
 0.8490E+00    0.9400E+00
 0.8510E+00    0.9459E+00
 0.8530E+00    0.9453E+00
 0.8550E+00    0.9429E+00
 0.8570E+00    0.9408E+00
 0.8590E+00    0.9387E+00
 0.8610E+00    0.9389E+00
 0.8630E+00    0.9403E+00
 0.8650E+00    0.9441E+00
 0.8670E+00    0.9469E+00
 0.8690E+00    0.9496E+00
 0.8710E+00    0.9493E+00
 0.8730E+00    0.9479E+00
 0.8750E+00    0.9451E+00
 0.8770E+00    0.9436E+00
 0.8790E+00    0.9437E+00
 0.8810E+00    0.9440E+00
 0.8830E+00    0.9438E+00
 0.8850E+00    0.9434E+00
 0.8870E+00    0.9438E+00
 0.8890E+00    0.9450E+00
 0.8910E+00    0.9476E+00
 0.8930E+00    0.9492E+00
 0.8950E+00    0.9498E+00
 0.8970E+00    0.9458E+00
 0.8990E+00    0.9410E+00
 0.9010E+00    0.9333E+00
 0.9030E+00    0.9306E+00
 0.9050E+00    0.9316E+00
 0.9070E+00    0.9345E+00
 0.9090E+00    0.9348E+00
 0.9110E+00    0.9321E+00
 0.9130E+00    0.9302E+00
 0.9150E+00    0.9292E+00
 0.9170E+00    0.9252E+00
 0.9190E+00    0.9139E+00
 0.9210E+00    0.8658E+00
 0.9230E+00    0.8039E+00
 0.9250E+00    0.6594E+00
 0.9270E+00    0.4702E+00
 0.9290E+00    0.3458E+00
 0.9310E+00    0.1893E+00
 0.9330E+00    0.1184E+00
 0.9350E+00    0.5610E-01
 0.9370E+00    0.2590E-01
 0.9390E+00    0.1580E-01
 0.9410E+00    0.7400E-02
 0.9430E+00    0.4300E-02
 0.9450E+00    0.1700E-02
 0.9470E+00    0.0000E+00
