# New eGalICS format
# filter of VISTA CAM h band
# download from  "Filter Profile Service" (http://svo2.cab.inta-csic.es/theory/fps)
# the number of effective wavelenght has beed reduced (1/4)
# After the "START" signal, the file is bild as follow:
# File name
# nwave: number of wavelenght
# center wavelenght [micron]
# and for l=1 to nwave, lambda [micron] | transmission [without unit]
START
VISTA_h
115
1.65
 0.1432E+01    0.9240E-03
 0.1436E+01    0.1779E-02
 0.1440E+01    0.3063E-02
 0.1444E+01    0.2887E-02
 0.1448E+01    0.4152E-02
 0.1452E+01    0.5117E-02
 0.1456E+01    0.6780E-02
 0.1460E+01    0.9238E-02
 0.1464E+01    0.1095E-01
 0.1468E+01    0.1697E-01
 0.1472E+01    0.2388E-01
 0.1476E+01    0.3553E-01
 0.1480E+01    0.5506E-01
 0.1484E+01    0.8744E-01
 0.1488E+01    0.1411E+00
 0.1492E+01    0.2242E+00
 0.1496E+01    0.3445E+00
 0.1500E+01    0.5009E+00
 0.1504E+01    0.6710E+00
 0.1508E+01    0.8069E+00
 0.1512E+01    0.8814E+00
 0.1516E+01    0.9056E+00
 0.1520E+01    0.8975E+00
 0.1524E+01    0.8682E+00
 0.1528E+01    0.8463E+00
 0.1532E+01    0.8427E+00
 0.1536E+01    0.8369E+00
 0.1540E+01    0.8490E+00
 0.1544E+01    0.8670E+00
 0.1548E+01    0.8811E+00
 0.1552E+01    0.9053E+00
 0.1556E+01    0.9115E+00
 0.1560E+01    0.9240E+00
 0.1564E+01    0.9241E+00
 0.1568E+01    0.9231E+00
 0.1572E+01    0.9236E+00
 0.1576E+01    0.9194E+00
 0.1580E+01    0.9204E+00
 0.1584E+01    0.9210E+00
 0.1588E+01    0.9173E+00
 0.1592E+01    0.9217E+00
 0.1596E+01    0.9128E+00
 0.1600E+01    0.9165E+00
 0.1604E+01    0.9081E+00
 0.1608E+01    0.9093E+00
 0.1612E+01    0.9048E+00
 0.1616E+01    0.8995E+00
 0.1620E+01    0.9037E+00
 0.1624E+01    0.9025E+00
 0.1628E+01    0.9010E+00
 0.1632E+01    0.9063E+00
 0.1636E+01    0.9071E+00
 0.1640E+01    0.9051E+00
 0.1644E+01    0.9125E+00
 0.1648E+01    0.9144E+00
 0.1652E+01    0.9129E+00
 0.1656E+01    0.9169E+00
 0.1660E+01    0.9254E+00
 0.1664E+01    0.9273E+00
 0.1668E+01    0.9267E+00
 0.1672E+01    0.9313E+00
 0.1676E+01    0.9421E+00
 0.1680E+01    0.9460E+00
 0.1684E+01    0.9437E+00
 0.1688E+01    0.9438E+00
 0.1692E+01    0.9450E+00
 0.1696E+01    0.9500E+00
 0.1700E+01    0.9521E+00
 0.1704E+01    0.9523E+00
 0.1708E+01    0.9498E+00
 0.1712E+01    0.9473E+00
 0.1716E+01    0.9456E+00
 0.1720E+01    0.9443E+00
 0.1724E+01    0.9453E+00
 0.1728E+01    0.9447E+00
 0.1732E+01    0.9454E+00
 0.1736E+01    0.9418E+00
 0.1740E+01    0.9332E+00
 0.1744E+01    0.9266E+00
 0.1748E+01    0.9194E+00
 0.1752E+01    0.9113E+00
 0.1756E+01    0.9036E+00
 0.1760E+01    0.8936E+00
 0.1764E+01    0.8796E+00
 0.1768E+01    0.8623E+00
 0.1772E+01    0.8352E+00
 0.1776E+01    0.7951E+00
 0.1780E+01    0.7375E+00
 0.1784E+01    0.6547E+00
 0.1788E+01    0.5569E+00
 0.1792E+01    0.4504E+00
 0.1796E+01    0.3442E+00
 0.1800E+01    0.2549E+00
 0.1804E+01    0.1821E+00
 0.1808E+01    0.1307E+00
 0.1812E+01    0.9223E-01
 0.1816E+01    0.6675E-01
 0.1820E+01    0.4718E-01
 0.1824E+01    0.3356E-01
 0.1828E+01    0.2556E-01
 0.1832E+01    0.1809E-01
 0.1836E+01    0.1449E-01
 0.1840E+01    0.9995E-02
 0.1844E+01    0.7483E-02
 0.1848E+01    0.6310E-02
 0.1852E+01    0.4815E-02
 0.1856E+01    0.4607E-02
 0.1860E+01    0.3187E-02
 0.1864E+01    0.2144E-02
 0.1868E+01    0.6090E-03
 0.1872E+01    0.1577E-02
 0.1876E+01    0.7780E-03
 0.1880E+01    0.1036E-02
 0.1884E+01    0.8600E-03
 0.1888E+01    0.1023E-02
