# New eGalICS format
# filter of Hershel SPIRE 250 micron (point source)
# download from  "Filter Profile Service" (http://svo2.cab.inta-csic.es/theory/fps)
# the number of effective wavelenght has beed reduced (1/3)
# After the "START" signal, the file is bild as follow:
# File name
# nwave: number of wavelenght
# center wavelenght [micron]
# and for l=1 to nwave, lambda [micron] | transmission [without unit]
START
SPIRE_PS_250
101
250.7
 0.1672E+03    0.2708E-03
 0.1694E+03    0.1025E-03
 0.1703E+03    0.5959E-03
 0.1711E+03    0.6124E-03
 0.1720E+03    0.8514E-03
 0.1729E+03    0.9735E-03
 0.1738E+03    0.3757E-03
 0.1746E+03    0.1528E-03
 0.1755E+03    0.3598E-03
 0.1765E+03    0.1582E-03
 0.1774E+03    0.2952E-03
 0.1783E+03    0.1013E-02
 0.1792E+03    0.3716E-03
 0.1811E+03    0.1473E-02
 0.1821E+03    0.1676E-02
 0.1831E+03    0.8339E-03
 0.1841E+03    0.1367E-02
 0.1851E+03    0.2199E-02
 0.1861E+03    0.3371E-02
 0.1871E+03    0.3305E-02
 0.1881E+03    0.2829E-02
 0.1892E+03    0.3531E-02
 0.1903E+03    0.3824E-02
 0.1913E+03    0.3355E-02
 0.1924E+03    0.3792E-02
 0.1935E+03    0.5294E-02
 0.1946E+03    0.6237E-02
 0.1957E+03    0.8023E-02
 0.1969E+03    0.1046E-01
 0.1980E+03    0.1263E-01
 0.1991E+03    0.1650E-01
 0.2003E+03    0.2201E-01
 0.2015E+03    0.3105E-01
 0.2027E+03    0.4492E-01
 0.2039E+03    0.6453E-01
 0.2051E+03    0.9434E-01
 0.2064E+03    0.1379E+00
 0.2076E+03    0.2072E+00
 0.2089E+03    0.2885E+00
 0.2102E+03    0.3660E+00
 0.2115E+03    0.4653E+00
 0.2128E+03    0.5647E+00
 0.2142E+03    0.6063E+00
 0.2155E+03    0.6278E+00
 0.2169E+03    0.6542E+00
 0.2183E+03    0.6693E+00
 0.2197E+03    0.6819E+00
 0.2211E+03    0.6979E+00
 0.2226E+03    0.6863E+00
 0.2240E+03    0.6798E+00
 0.2255E+03    0.7414E+00
 0.2270E+03    0.7666E+00
 0.2285E+03    0.7452E+00
 0.2301E+03    0.7732E+00
 0.2316E+03    0.8259E+00
 0.2332E+03    0.8448E+00
 0.2349E+03    0.8463E+00
 0.2365E+03    0.8602E+00
 0.2381E+03    0.8445E+00
 0.2398E+03    0.8672E+00
 0.2415E+03    0.9116E+00
 0.2432E+03    0.8844E+00
 0.2450E+03    0.8420E+00
 0.2467E+03    0.8762E+00
 0.2486E+03    0.9100E+00
 0.2504E+03    0.8823E+00
 0.2522E+03    0.8790E+00
 0.2541E+03    0.9010E+00
 0.2560E+03    0.9086E+00
 0.2579E+03    0.9391E+00
 0.2599E+03    0.9514E+00
 0.2619E+03    0.9103E+00
 0.2639E+03    0.9146E+00
 0.2660E+03    0.9925E+00
 0.2681E+03    0.9650E+00
 0.2702E+03    0.8946E+00
 0.2724E+03    0.9168E+00
 0.2746E+03    0.9307E+00
 0.2768E+03    0.8834E+00
 0.2791E+03    0.8577E+00
 0.2814E+03    0.7994E+00
 0.2838E+03    0.6886E+00
 0.2861E+03    0.6626E+00
 0.2885E+03    0.5864E+00
 0.2910E+03    0.3833E+00
 0.2935E+03    0.2174E+00
 0.2960E+03    0.3090E-01
 0.2987E+03    0.7429E-02
 0.3013E+03    0.4589E-02
 0.3040E+03    0.3946E-02
 0.3067E+03    0.3111E-02
 0.3095E+03    0.2173E-02
 0.3123E+03    0.1505E-02
 0.3153E+03    0.9130E-03
 0.3182E+03    0.5253E-03
 0.3211E+03    0.3704E-03
 0.3243E+03    0.2929E-03
 0.3273E+03    0.2144E-03
 0.3306E+03    0.1575E-03
 0.3338E+03    0.1278E-03
 0.3370E+03    0.1026E-03
