# New eGalICS format
# filter of Hershel SPIRE 350 micron (point source)
# download from  "Filter Profile Service" (http://svo2.cab.inta-csic.es/theory/fps)
# the number of effective wavelenght has beed reduced (1/2)
# After the "START" signal, the file is bild as follow:
# File name
# nwave: number of wavelenght
# center wavelenght [micron]
# and for l=1 to nwave, lambda [micron] | transmission [without unit]
START
SPIRE_PS_500
97
510.6
 0.3359E+03    0.1004E-04
 0.3382E+03    0.1338E-04
 0.3405E+03    0.2639E-04
 0.3427E+03    0.2619E-04
 0.3451E+03    0.5593E-04
 0.3473E+03    0.1101E-03
 0.3498E+03    0.1829E-03
 0.3521E+03    0.4332E-03
 0.3546E+03    0.6432E-03
 0.3571E+03    0.9783E-03
 0.3596E+03    0.7931E-03
 0.3622E+03    0.9706E-03
 0.3647E+03    0.1288E-02
 0.3674E+03    0.1191E-02
 0.3700E+03    0.1326E-02
 0.3727E+03    0.1415E-02
 0.3755E+03    0.1844E-02
 0.3782E+03    0.2969E-02
 0.3811E+03    0.4141E-02
 0.3839E+03    0.6641E-02
 0.3868E+03    0.1033E-01
 0.3897E+03    0.1638E-01
 0.3928E+03    0.2876E-01
 0.3959E+03    0.4887E-01
 0.3989E+03    0.8135E-01
 0.4021E+03    0.1314E+00
 0.4052E+03    0.2146E+00
 0.4085E+03    0.3573E+00
 0.4117E+03    0.5774E+00
 0.4151E+03    0.7549E+00
 0.4186E+03    0.8538E+00
 0.4219E+03    0.8948E+00
 0.4255E+03    0.9370E+00
 0.4290E+03    0.9719E+00
 0.4327E+03    0.9886E+00
 0.4363E+03    0.9716E+00
 0.4401E+03    0.9812E+00
 0.4440E+03    0.1000E+01
 0.4478E+03    0.9889E+00
 0.4519E+03    0.9228E+00
 0.4558E+03    0.9035E+00
 0.4600E+03    0.9237E+00
 0.4640E+03    0.9535E+00
 0.4684E+03    0.9652E+00
 0.4728E+03    0.9136E+00
 0.4771E+03    0.8641E+00
 0.4817E+03    0.8369E+00
 0.4861E+03    0.8824E+00
 0.4909E+03    0.8979E+00
 0.4955E+03    0.8772E+00
 0.5005E+03    0.8690E+00
 0.5056E+03    0.8516E+00
 0.5105E+03    0.8439E+00
 0.5157E+03    0.8349E+00
 0.5208E+03    0.8470E+00
 0.5263E+03    0.8214E+00
 0.5316E+03    0.8875E+00
 0.5373E+03    0.8836E+00
 0.5432E+03    0.8725E+00
 0.5488E+03    0.8383E+00
 0.5549E+03    0.8439E+00
 0.5609E+03    0.8436E+00
 0.5672E+03    0.9153E+00
 0.5734E+03    0.9190E+00
 0.5800E+03    0.8720E+00
 0.5865E+03    0.8751E+00
 0.5935E+03    0.9469E+00
 0.6006E+03    0.9228E+00
 0.6075E+03    0.9283E+00
 0.6150E+03    0.2224E+00
 0.6223E+03    0.1073E+00
 0.6301E+03    0.6458E-01
 0.6378E+03    0.4226E-01
 0.6460E+03    0.2867E-01
 0.6545E+03    0.1953E-01
 0.6627E+03    0.1539E-01
 0.6716E+03    0.1224E-01
 0.6803E+03    0.9699E-02
 0.6897E+03    0.7454E-02
 0.6988E+03    0.5578E-02
 0.7087E+03    0.4732E-02
 0.7189E+03    0.3785E-02
 0.7289E+03    0.3174E-02
 0.7396E+03    0.2590E-02
 0.7502E+03    0.2257E-02
 0.7616E+03    0.1747E-02
 0.7728E+03    0.1500E-02
 0.7849E+03    0.1217E-02
 0.7974E+03    0.1089E-02
 0.8097E+03    0.9293E-03
 0.8230E+03    0.8432E-03
 0.8361E+03    0.7606E-03
 0.8503E+03    0.6068E-03
 0.8643E+03    0.4633E-03
 0.8795E+03    0.4043E-03
 0.8953E+03    0.3256E-03
 0.9107E+03    0.2926E-03
