# New G.A.S. format
# filter of IRCS_J
# download from  "Filter Profile Service" (http://svo2.cab.inta-csic.es/theory/fps)
# Wavelenght table as been reduced by a factor 8
# After the "START" signal, the file is bild as follow:
# Filter name
# nwave: number of wavelenght
# center wavelenght [micron]
# and for l=1 to nwave, lambda [micron] | transmission [without unit]
START
IRCS_J
134
1.24717
1.14380   0.0040650
1.14520   0.0049650
1.14680   0.0064610
1.14840   0.0100090
1.15000   0.0134200
1.15160   0.0180550
1.15320   0.0250190
1.15480   0.0350910
1.15640   0.0478200
1.15800   0.0687130
1.15960   0.0983740
1.16120   0.1419300
1.16280   0.2103940
1.16440   0.3068150
1.16600   0.4371860
1.16760   0.5877470
1.16920   0.7186130
1.17080   0.8045700
1.17240   0.8313010
1.17400   0.8271010
1.17560   0.8100570
1.17720   0.7942490
1.17880   0.7863480
1.18040   0.7879710
1.18200   0.7926750
1.18360   0.8019240
1.18520   0.8081720
1.18680   0.8135390
1.18840   0.8201460
1.19000   0.8207510
1.19160   0.8190920
1.19320   0.8184660
1.19480   0.8180800
1.19640   0.8208810
1.19800   0.8260670
1.19960   0.8331110
1.20120   0.8441900
1.20280   0.8561320
1.20440   0.8641630
1.20600   0.8752830
1.20760   0.8777260
1.20920   0.8793750
1.21080   0.8750340
1.21240   0.8659430
1.21400   0.8573940
1.21560   0.8469760
1.21720   0.8354280
1.21880   0.8282460
1.22040   0.8216490
1.22200   0.8189450
1.22360   0.8186280
1.22520   0.8211960
1.22680   0.8278020
1.22840   0.8323250
1.23000   0.8399150
1.23160   0.8474870
1.23320   0.8545480
1.23480   0.8600230
1.23640   0.8629500
1.23800   0.8631050
1.23960   0.8663150
1.24120   0.8640710
1.24280   0.8612090
1.24440   0.8617570
1.24600   0.8598110
1.24760   0.8598520
1.24920   0.8611570
1.25080   0.8622430
1.25240   0.8666280
1.25400   0.8713810
1.25560   0.8788070
1.25720   0.8834880
1.25880   0.8914900
1.26040   0.8978490
1.26200   0.9042190
1.26360   0.9087810
1.26520   0.9161680
1.26680   0.9196450
1.26840   0.9248200
1.27000   0.9280120
1.27160   0.9299160
1.27320   0.9309800
1.27480   0.9307150
1.27640   0.9273860
1.27800   0.9284820
1.27960   0.9249800
1.28120   0.9213070
1.28280   0.9157520
1.28440   0.9102960
1.28600   0.9031890
1.28760   0.8955530
1.28920   0.8877660
1.29080   0.8850850
1.29240   0.8803010
1.29400   0.8767350
1.29560   0.8739830
1.29720   0.8735990
1.29880   0.8693790
1.30040   0.8683680
1.30200   0.8657650
1.30360   0.8594250
1.30520   0.8539370
1.30680   0.8479610
1.30840   0.8417740
1.31000   0.8380560
1.31160   0.8356410
1.31320   0.8379220
1.31480   0.8475490
1.31640   0.8622300
1.31800   0.8792680
1.31960   0.8937400
1.32120   0.8917770
1.32280   0.8561190
1.32440   0.7774350
1.32600   0.6484470
1.32760   0.5059910
1.32920   0.3687820
1.33080   0.2634860
1.33240   0.1827040
1.33400   0.1273580
1.33560   0.0912240
1.33720   0.0667020
1.33880   0.0487550
1.34040   0.0366240
1.34200   0.0265730
1.34360   0.0219630
1.34520   0.0162010
1.34680   0.0133050
1.34840   0.0114330
1.35000   0.0088390
1.35160   0.0069750
1.35320   0.0070610
1.35480   0.0056350
1.35640   0.0063940
