# New eGalICS format
# filter of Spitzer IRAC 3.6 micron
# After the "START" signal, the file is bild as follow:
# File name
# nwave: number of wavelenght
# center wavelenght [micron]
# and for l=1 to nwave, lambda [micron] | transmission [without unit]
START
IRAC_3_6
201
3.6 
0.2885  0.000431000
0.2892  0.000668000
0.2898  0.000546000
0.2905  0.000401000
0.2912  0.000378000
0.2919  0.000288000
0.2925  0.000567000
0.2932  0.00114000
0.2939  0.00116100
0.2946  0.000589000
0.2952  0.00108800
0.2959  0.000848000
0.2966  0.00115300
0.2973  0.000509000
0.2979  0.00133400
0.2986  0.00113200
0.2993  0.00154000
0.3000  0.000905000
0.3006  0.000194000
0.3013  0.000719000
0.3020  0.000697000
0.3027  0.000671000
0.3033  0.000860000
0.3040  0.000453000
0.3047  0.000735000
0.3054  0.000416000
0.3060  0.000563000
0.3067  0.000855000
0.3074  0.000568000
0.3081  0.000468000
0.3087  0.000241000
0.3094  0.000532000
0.3101  0.000497000
0.3108  0.00136700
0.3114  0.00216000
0.3121  0.00352900
0.3128  0.00585200
0.3135  0.00898400
0.3141  0.0160300
0.3148  0.0268900
0.3155  0.0492700
0.3162  0.0887500
0.3168  0.154800
0.3175  0.248700
0.3182  0.354900
0.3189  0.446900
0.3195  0.507300
0.3202  0.530100
0.3209  0.529600
0.3216  0.515500
0.3222  0.501600
0.3229  0.490600
0.3236  0.487900
0.3243  0.492400
0.3249  0.505800
0.3256  0.522700
0.3263  0.541700
0.3270  0.558800
0.3276  0.574700
0.3283  0.583800
0.3290  0.586000
0.3297  0.585700
0.3303  0.581500
0.3310  0.576600
0.3317  0.572600
0.3324  0.568200
0.3330  0.567300
0.3337  0.569600
0.3344  0.569800
0.3351  0.570700
0.3357  0.568200
0.3364  0.565800
0.3371  0.560900
0.3378  0.561800
0.3384  0.561700
0.3391  0.570200
0.3398  0.580800
0.3405  0.592600
0.3411  0.602500
0.3418  0.606700
0.3425  0.612300
0.3432  0.605600
0.3438  0.600500
0.3445  0.590400
0.3452  0.582500
0.3459  0.576900
0.3465  0.577100
0.3472  0.577700
0.3479  0.585300
0.3486  0.596000
0.3492  0.606500
0.3499  0.618300
0.3506  0.625600
0.3513  0.635200
0.3519  0.640700
0.3526  0.642700
0.3533  0.645200
0.3540  0.639400
0.3546  0.636400
0.3553  0.634100
0.3560  0.629500
0.3567  0.628600
0.3573  0.623700
0.3580  0.624300
0.3587  0.625400
0.3594  0.629600
0.3600  0.631500
0.3607  0.631300
0.3614  0.634000
0.3621  0.632600
0.3627  0.632100
0.3634  0.626400
0.3641  0.621800
0.3648  0.615200
0.3654  0.609100
0.3661  0.604200
0.3668  0.601800
0.3675  0.602900
0.3681  0.604500
0.3688  0.608400
0.3695  0.616400
0.3702  0.622700
0.3708  0.630500
0.3715  0.639000
0.3722  0.641400
0.3729  0.647000
0.3735  0.649100
0.3742  0.651100
0.3749  0.650300
0.3756  0.648800
0.3762  0.644000
0.3769  0.641400
0.3776  0.636900
0.3783  0.633200
0.3789  0.630700
0.3796  0.629700
0.3803  0.627700
0.3810  0.626100
0.3816  0.624100
0.3823  0.619900
0.3830  0.615500
0.3837  0.608800
0.3843  0.600600
0.3850  0.592600
0.3857  0.586600
0.3864  0.584100
0.3870  0.589000
0.3877  0.596200
0.3884  0.604600
0.3891  0.613000
0.3897  0.609600
0.3904  0.588000
0.3911  0.535400
0.3918  0.447500
0.3924  0.335600
0.3931  0.225900
0.3938  0.138000
0.3945  0.0791600
0.3951  0.0443400
0.3958  0.0247600
0.3965  0.0140500
0.3972  0.00818900
0.3978  0.00482600
0.3985  0.00292400
0.3992  0.00213500
0.3999  0.00123600
0.4005  0.000902000
0.4012  0.000544000
0.4019  0.000650000
0.4026  0.000581000
0.4032  0.000701000
0.4039  0.000594000
0.4046  0.000614000
0.4053  0.000640000
0.4059  0.000687000
0.4066  0.000594000
0.4073  0.000579000
0.4080  0.000330000
0.4086  0.000316000
0.4093  0.000323000
0.4100  0.000263000
0.4107  0.000179000
0.4113  0.000377000
0.4120  0.000374000
0.4127  0.000252000
0.4134  0.000244000
0.4140  0.000478000
0.4147  0.000363000
0.4154  0.000312000
0.4161  0.000173000
0.4167  0.000280000
0.4174  0.000389000
0.4181  0.000556000
0.4188  0.000564000
0.4194  0.000458000
0.4201  0.000319000
0.4208  0.000292000
0.4215  0.000250000
0.4221  0.000223000
0.4228  0.000267000
0.4235  0.000336000
