# New eGalICS format
# filter of Spitzer IRAC 5.8 micron
# After the "START" signal, the file is bild as follow:
# File name
# nwave: number of wavelenght
# center wavelenght [micron]
# and for l=1 to nwave, lambda [micron] | transmission [without unit]
START
IRAC_5_8
201
5.8
0.43940  7.20000e-05
0.44070  9.70000e-05
0.44200  0.000103000
0.44330  0.000204000
0.44460  0.000169000
0.44590  0.000126000
0.44720  0.000129000
0.44840  0.000173000
0.44970  0.000189000
0.45100  0.000143000
0.45230  0.000172000
0.45360  0.000173000
0.45490  0.000210000
0.45620  0.000242000
0.45750  0.000319000
0.45880  0.000335000
0.46010  0.000310000
0.46140  0.000311000
0.46270  0.000222000
0.46390  0.000271000
0.46520  0.000337000
0.46650  0.000263000
0.46780  0.000242000
0.46910  0.000217000
0.47040  0.000180000
0.47170  2.60000e-05
0.47300  0.000161000
0.47430  0.000159000
0.47560  9.10000e-05
0.47690  0.000253000
0.47820  0.000303000
0.47940  0.000281000
0.48070  0.000208000
0.48200  0.000212000
0.48330  0.000153000
0.48460  0.000225000
0.48590  0.000362000
0.48720  0.000187000
0.48850  0.000246000
0.48980  0.000865000
0.49110  0.000137000
0.49240  0.00160100
0.49360  0.00661200
0.49490  0.0192800
0.49620  0.0468400
0.49750  0.0837800
0.49880  0.122200
0.50010  0.158400
0.50140  0.191000
0.50270  0.216500
0.50400  0.228100
0.50530  0.224700
0.50660  0.220000
0.50790  0.226600
0.50910  0.244400
0.51040  0.263300
0.51170  0.274400
0.51300  0.277100
0.51430  0.274200
0.51560  0.269300
0.51690  0.264500
0.51820  0.260900
0.51950  0.260000
0.52080  0.264300
0.52210  0.272800
0.52340  0.281000
0.52460  0.284800
0.52590  0.282200
0.52720  0.273700
0.52850  0.261900
0.52980  0.252200
0.53110  0.249300
0.53240  0.254800
0.53370  0.265500
0.53500  0.275200
0.53630  0.279300
0.53760  0.280200
0.53890  0.279900
0.54010  0.278400
0.54140  0.276000
0.54270  0.272900
0.54400  0.269600
0.54530  0.267100
0.54660  0.265100
0.54790  0.263300
0.54920  0.261700
0.55050  0.259900
0.55180  0.257300
0.55310  0.256500
0.55440  0.259000
0.55560  0.264900
0.55690  0.269900
0.55820  0.271800
0.55950  0.269100
0.56080  0.265900
0.56210  0.262700
0.56340  0.261600
0.56470  0.262400
0.56600  0.264700
0.56730  0.268000
0.56860  0.269000
0.56980  0.267400
0.57110  0.264800
0.57240  0.262800
0.57370  0.265000
0.57500  0.269600
0.57630  0.272000
0.57760  0.269100
0.57890  0.263900
0.58020  0.260100
0.58150  0.260100
0.58280  0.262600
0.58410  0.263900
0.58530  0.264400
0.58660  0.264400
0.58790  0.265500
0.58920  0.264700
0.59050  0.263800
0.59180  0.261400
0.59310  0.258600
0.59440  0.256700
0.59570  0.256700
0.59700  0.259900
0.59830  0.261300
0.59960  0.261300
0.60080  0.257500
0.60210  0.253200
0.60340  0.249500
0.60470  0.249800
0.60600  0.249200
0.60730  0.250700
0.60860  0.248500
0.60990  0.246000
0.61120  0.242000
0.61250  0.236800
0.61380  0.232700
0.61510  0.230600
0.61630  0.229900
0.61760  0.230000
0.61890  0.231900
0.62020  0.232900
0.62150  0.231800
0.62280  0.227100
0.62410  0.219400
0.62540  0.211500
0.62670  0.206600
0.62800  0.206300
0.62930  0.209900
0.63050  0.214800
0.63180  0.217400
0.63310  0.217200
0.63440  0.215700
0.63570  0.211800
0.63700  0.205400
0.63830  0.190100
0.63960  0.168900
0.64090  0.145400
0.64220  0.124000
0.64350  0.103200
0.64480  0.0795300
0.64600  0.0531200
0.64730  0.0295100
0.64860  0.0141700
0.64990  0.00576300
0.65120  0.00247200
0.65250  0.00116300
0.65380  0.000589000
0.65510  0.000345000
0.65640  0.000166000
0.65770  0.000146000
0.65900  0.000200000
0.66030  0.000154000
0.66150  0.000128000
0.66280  0.000191000
0.66410  0.000145000
0.66540  0.000102000
0.66670  0.000128000
0.66800  0.000120000
0.66930  3.10000e-05
0.67060  4.00000e-05
0.67190  6.20000e-05
0.67320  0.000125000
0.67450  6.80000e-05
0.67580  7.50000e-05
0.67700  0.000183000
0.67830  0.000109000
0.67960  0.000146000
0.68090  0.000179000
0.68220  7.30000e-05
0.68350  0.000113000
0.68480  0.000116000
0.68610  9.70000e-05
0.68740  8.10000e-05
0.68870  9.90000e-05
0.69000  0.000138000
0.69120  0.000113000
0.69250  9.30000e-05
0.69380  0.000131000
0.69510  0.000149000
0.69640  0.000158000
0.69770  0.000143000
