# New eGalICS format
# filter of Spitzer IRAC 4.5 micron
# After the "START" signal, the file is bild as follow:
# File name
# nwave: number of wavelenght
# center wavelenght [micron]
# and for l=1 to nwave, lambda [micron] | transmission [without unit]
START
IRAC_4_5
185
4.5
0.35880  0.000327000
0.35970  0.000383000
0.36060  0.00129400
0.36150  0.00116000
0.36240  0.00126600
0.36340  0.00135500
0.36430  0.00135200
0.36520  0.000821000
0.36610  0.000776000
0.36700  0.000625000
0.36790  0.000229000
0.36880  0.000651000
0.36980  0.000682000
0.37070  0.000556000
0.37160  0.000460000
0.37250  0.000627000
0.37340  0.000858000
0.37430  0.000743000
0.37520  0.000831000
0.37610  0.000534000
0.37710  0.000523000
0.37800  0.000293000
0.37890  0.000442000
0.37980  0.000197000
0.38070  0.000451000
0.38160  8.20000e-05
0.38250  0.000354000
0.38350  0.000268000
0.38440  0.000191000
0.38530  0.000142000
0.38620  0.000466000
0.38710  0.000512000
0.38800  0.000830000
0.38890  0.00112300
0.38980  0.00219100
0.39080  0.00326200
0.39170  0.00564500
0.39260  0.00884200
0.39350  0.0138900
0.39440  0.0210300
0.39530  0.0317400
0.39620  0.0480700
0.39720  0.0745800
0.39810  0.121100
0.39900  0.196400
0.39990  0.302800
0.40080  0.418200
0.40170  0.504800
0.40260  0.544100
0.40350  0.548500
0.40450  0.539900
0.40540  0.523800
0.40630  0.507000
0.40720  0.489400
0.40810  0.473800
0.40900  0.463200
0.40990  0.457700
0.41090  0.459500
0.41180  0.466700
0.41270  0.480900
0.41360  0.500700
0.41450  0.525300
0.41540  0.556200
0.41630  0.582000
0.41730  0.607500
0.41820  0.628200
0.41910  0.647400
0.42000  0.658600
0.42090  0.668400
0.42180  0.673800
0.42270  0.674400
0.42360  0.672400
0.42460  0.668200
0.42550  0.658600
0.42640  0.649700
0.42730  0.642000
0.42820  0.638800
0.42910  0.637000
0.43000  0.644600
0.43100  0.652600
0.43190  0.662400
0.43280  0.671500
0.43370  0.680700
0.43460  0.687100
0.43550  0.691100
0.43640  0.694800
0.43730  0.699900
0.43830  0.705000
0.43920  0.710500
0.44010  0.717800
0.44100  0.724000
0.44190  0.729600
0.44280  0.733200
0.44370  0.736500
0.44470  0.736400
0.44560  0.736100
0.44650  0.735700
0.44740  0.732500
0.44830  0.730100
0.44920  0.726400
0.45010  0.718300
0.45110  0.711000
0.45200  0.704400
0.45290  0.696900
0.45380  0.690600
0.45470  0.686800
0.45560  0.681900
0.45650  0.680500
0.45740  0.677000
0.45840  0.674000
0.45930  0.668500
0.46020  0.664500
0.46110  0.656700
0.46200  0.647400
0.46290  0.637500
0.46380  0.632000
0.46480  0.632700
0.46570  0.634000
0.46660  0.639800
0.46750  0.644300
0.46840  0.650700
0.46930  0.656000
0.47020  0.662000
0.47110  0.666100
0.47210  0.665000
0.47300  0.664400
0.47390  0.657900
0.47480  0.654000
0.47570  0.646500
0.47660  0.638500
0.47750  0.632300
0.47850  0.621400
0.47940  0.615400
0.48030  0.610200
0.48120  0.604300
0.48210  0.602000
0.48300  0.597900
0.48390  0.598500
0.48490  0.597900
0.48580  0.597100
0.48670  0.596600
0.48760  0.595800
0.48850  0.595400
0.48940  0.595500
0.49030  0.596500
0.49120  0.595700
0.49220  0.593000
0.49310  0.586100
0.49400  0.569700
0.49490  0.550100
0.49580  0.526400
0.49670  0.506000
0.49760  0.495500
0.49860  0.498800
0.49950  0.511200
0.50040  0.498000
0.50130  0.411700
0.50220  0.265200
0.50310  0.134500
0.50400  0.0597200
0.50490  0.0261000
0.50590  0.0120800
0.50680  0.00587400
0.50770  0.00293800
0.50860  0.00150100
0.50950  0.000814000
0.51040  0.000401000
0.51130  0.000511000
0.51230  0.000407000
0.51320  0.000272000
0.51410  0.000188000
0.51500  0.000133000
0.51590  8.50000e-05
0.51680  0.000119000
0.51770  0.000138000
0.51870  0.000113000
0.51960  0.000103000
0.52050  0.000117000
0.52140  0.000135000
0.52230  0.000142000
0.52320  0.000168000
0.52410  0.000138000
0.52500  7.00000e-05
0.52600  3.30000e-05
0.52690  0.00000
