# New G.A.S. format
# filter of SCUBA2_450
# download from  "Filter Profile Service" (http://svo2.cab.inta-csic.es/theory/fps)
# Wavelenght table as been reduced by a factor 25
# After the "START" signal, the file is bild as follow:
# Filter name
# nwave: number of wavelenght
# center wavelenght [micron]
# and for l=1 to nwave, lambda [micron] | transmission [without unit]
START
SCUBA2_450
121
450.00000
374.78735   0.0001000
375.96238   0.0001000
377.14480   0.0001000
378.33468   0.0002000
379.53209   0.0002000
380.73711   0.0002000
381.94980   0.0002000
383.17025   0.0003000
384.39851   0.0003000
385.63468   0.0003000
386.87882   0.0004000
388.13102   0.0004000
389.39135   0.0004000
390.65989   0.0005000
391.93672   0.0006000
393.22193   0.0006000
394.51559   0.0007000
395.81780   0.0008000
397.12863   0.0010000
398.44817   0.0011000
399.77650   0.0012000
401.11373   0.0014000
402.45993   0.0016000
403.81519   0.0020000
405.17962   0.0024000
406.55330   0.0028000
407.93632   0.0034000
409.32878   0.0043000
410.73079   0.0052000
412.14243   0.0062000
413.56380   0.0074000
414.99502   0.0089000
416.43617   0.0108000
417.88737   0.0134000
419.34872   0.0167000
420.82033   0.0211000
422.30230   0.0272000
423.79474   0.0359000
425.29777   0.0479000
426.81150   0.0639000
428.33605   0.0857000
429.87152   0.1160000
431.41805   0.1547000
432.97574   0.1984000
434.54472   0.2449000
436.12511   0.2972000
437.71704   0.3471000
439.32063   0.3795000
440.93602   0.3903000
442.56333   0.3982000
444.20270   0.4026000
445.85425   0.4049000
447.51814   0.4054000
449.19449   0.3977000
450.88344   0.3935000
452.58514   0.3928000
454.29974   0.3827000
456.02738   0.3646000
457.76821   0.3328000
459.52238   0.3024000
461.29004   0.2736000
463.07136   0.2342000
464.86649   0.1910000
466.67559   0.1540000
468.49883   0.1243000
470.33637   0.0994000
472.18838   0.0751000
474.05503   0.0547000
475.93650   0.0392000
477.83296   0.0288000
479.74460   0.0209000
481.67159   0.0152000
483.61413   0.0124000
485.57240   0.0114000
487.54659   0.0110000
489.53690   0.0105000
491.54353   0.0100000
493.56668   0.0095000
495.60655   0.0088000
497.66335   0.0081000
499.73729   0.0074000
501.82859   0.0067000
503.93747   0.0062000
506.06415   0.0056000
508.20885   0.0050000
510.37181   0.0045000
512.55326   0.0041000
514.75343   0.0038000
516.97258   0.0034000
519.21095   0.0030000
521.46878   0.0026000
523.74633   0.0023000
526.04387   0.0020000
528.36165   0.0018000
530.69995   0.0016000
533.05903   0.0014000
535.43919   0.0012000
537.84069   0.0010000
540.26383   0.0009000
542.70891   0.0008000
545.17621   0.0006000
547.66606   0.0006000
550.17875   0.0005000
552.71460   0.0004000
555.27394   0.0003000
557.85709   0.0003000
560.46439   0.0003000
563.09617   0.0003000
565.75278   0.0002000
568.43458   0.0002000
571.14193   0.0002000
573.87519   0.0002000
576.63474   0.0002000
579.42095   0.0003000
582.23422   0.0002000
585.07494   0.0002000
587.94352   0.0002000
590.84036   0.0001000
593.76589   0.0001000
596.72054   0.0001000
599.58480   0.0001000
