# New G.A.S. format
# filter of SCUBA2_850
# download from  "Filter Profile Service" (http://svo2.cab.inta-csic.es/theory/fps)
# Wavelenght table as been reduced by a factor 11
# After the "START" signal, the file is bild as follow:
# Filter name
# nwave: number of wavelenght
# center wavelenght [micron]
# and for l=1 to nwave, lambda [micron] | transmission [without unit]
START
SCUBA2_850
128
850.00000
731.91504   0.0000000
733.88592   0.0000000
735.86745   0.0000000
737.85971   0.0000000
739.86278   0.0000000
741.87676   0.0000000
743.90174   0.0010000
745.93780   0.0010000
747.98503   0.0010000
750.04353   0.0010000
752.11340   0.0020000
754.19472   0.0020000
756.28759   0.0030000
758.39211   0.0030000
760.50837   0.0040000
762.63648   0.0050000
764.77653   0.0060000
766.92863   0.0070000
769.09287   0.0080000
771.26936   0.0090000
773.45820   0.0110000
775.65951   0.0130000
777.87338   0.0150000
780.09992   0.0170000
782.33925   0.0190000
784.59147   0.0220000
786.85669   0.0260000
789.13504   0.0300000
791.42661   0.0340000
793.73153   0.0400000
796.04992   0.0470000
798.38189   0.0550000
800.72756   0.0640000
803.08706   0.0770000
805.46051   0.0910000
807.84802   0.1080000
810.24973   0.1290000
812.66576   0.1540000
815.09625   0.1820000
817.54131   0.2110000
820.00109   0.2460000
822.47572   0.2790000
824.96533   0.3100000
827.47005   0.3400000
829.99003   0.3710000
832.52541   0.3970000
835.07632   0.4180000
837.64292   0.4410000
840.22534   0.4520000
842.82373   0.4560000
845.43824   0.4540000
848.06902   0.4520000
850.71623   0.4530000
853.38002   0.4550000
856.06054   0.4550000
858.75795   0.4480000
861.47241   0.4450000
864.20409   0.4470000
866.95315   0.4470000
869.71976   0.4430000
872.50407   0.4380000
875.30628   0.4340000
878.12654   0.4230000
880.96503   0.4110000
883.82193   0.3970000
886.69743   0.3770000
889.59169   0.3520000
892.50491   0.3280000
895.43728   0.3060000
898.38897   0.2810000
901.36019   0.2520000
904.35113   0.2210000
907.36199   0.1890000
910.39295   0.1640000
913.44424   0.1420000
916.51605   0.1230000
919.60859   0.1040000
922.72207   0.0880000
925.85670   0.0750000
929.01271   0.0630000
932.19030   0.0550000
935.38970   0.0480000
938.61115   0.0420000
941.85485   0.0350000
945.12106   0.0300000
948.41000   0.0260000
951.72190   0.0220000
955.05702   0.0190000
958.41560   0.0160000
961.79788   0.0140000
965.20412   0.0120000
968.63457   0.0110000
972.08949   0.0090000
975.56915   0.0080000
979.07381   0.0070000
982.60374   0.0060000
986.15921   0.0050000
989.74051   0.0040000
993.34791   0.0040000
996.98171   0.0030000
1000.64219   0.0030000
1004.32965   0.0030000
1008.04438   0.0020000
1011.78670   0.0020000
1015.55691   0.0020000
1019.35532   0.0010000
1023.18225   0.0010000
1027.03803   0.0010000
1030.92297   0.0010000
1034.83742   0.0010000
1038.78170   0.0010000
1042.75617   0.0010000
1046.76117   0.0010000
1050.79706   0.0000000
1054.86418   0.0000000
1058.96291   0.0000000
1063.09362   0.0000000
1067.25667   0.0000000
1071.45247   0.0000000
1075.68138   0.0000000
1079.94380   0.0000000
1084.24014   0.0000000
1088.57081   0.0000000
1092.93620   0.0000000
1097.33675   0.0000000
1101.77288   0.0000000
1106.24502   0.0000000
1110.34222   0.0000000
