# New G.A.S. format
# filter of F150W
# download from  "Filter Profile Service" (http://svo2.cab.inta-csic.es/theory/fps)
# Wavelenght table as been reduced by a factor 5
# After the "START" signal, the file is bild as follow:
# Filter name
# nwave: number of wavelenght
# center wavelenght [micron]
# and for l=1 to nwave, lambda [micron] | transmission [without unit]
START
F150W
134
1.50100
1.24800   0.0000107
1.25200   0.0000147
1.25700   0.0000223
1.26200   0.0000339
1.26700   0.0000551
1.27200   0.0000943
1.27700   0.0001740
1.28200   0.0003390
1.28700   0.0006770
1.29200   0.0014000
1.29700   0.0031000
1.30200   0.0076500
1.30700   0.0197000
1.31200   0.0326000
1.31700   0.0572000
1.32200   0.1190000
1.32700   0.2620000
1.33200   0.5230000
1.33700   0.7950000
1.34200   0.9090000
1.34700   0.9300000
1.35200   0.9430000
1.35700   0.9440000
1.36200   0.9400000
1.36700   0.9360000
1.37200   0.9380000
1.37700   0.9340000
1.38200   0.9300000
1.38700   0.9290000
1.39200   0.9280000
1.39700   0.9320000
1.40200   0.9380000
1.40700   0.9430000
1.41200   0.9470000
1.41700   0.9530000
1.42200   0.9560000
1.42700   0.9580000
1.43200   0.9600000
1.43700   0.9610000
1.44200   0.9620000
1.44700   0.9630000
1.45200   0.9630000
1.45700   0.9580000
1.46200   0.9500000
1.46700   0.9430000
1.47200   0.9350000
1.47700   0.9320000
1.48200   0.9350000
1.48700   0.9420000
1.49200   0.9480000
1.49700   0.9550000
1.50200   0.9630000
1.50700   0.9670000
1.51200   0.9730000
1.51700   0.9730000
1.52200   0.9710000
1.52700   0.9700000
1.53200   0.9640000
1.53700   0.9590000
1.54200   0.9550000
1.54700   0.9520000
1.55200   0.9500000
1.55700   0.9470000
1.56200   0.9450000
1.56700   0.9440000
1.57200   0.9500000
1.57700   0.9570000
1.58200   0.9680000
1.58700   0.9770000
1.59200   0.9830000
1.59700   0.9840000
1.60200   0.9830000
1.60700   0.9820000
1.61200   0.9820000
1.61700   0.9850000
1.62200   0.9790000
1.62700   0.9790000
1.63200   0.9770000
1.63700   0.9770000
1.64200   0.9740000
1.64700   0.9730000
1.65200   0.9750000
1.65700   0.9720000
1.66200   0.8880000
1.66700   0.6320000
1.67200   0.3390000
1.67700   0.1610000
1.68200   0.0837000
1.68700   0.0437000
1.69200   0.0186000
1.69700   0.0079500
1.70200   0.0036300
1.70700   0.0017800
1.71200   0.0009300
1.71700   0.0005160
1.72200   0.0003030
1.72700   0.0001870
1.73200   0.0001200
1.73700   0.0000788
1.74200   0.0000541
1.74700   0.0000377
1.75200   0.0000281
1.75700   0.0000223
1.76200   0.0000166
1.76700   0.0000145
1.77200   0.0000114
1.77700   0.0000108
1.78200   0.0000102
1.78700   0.0000099
1.79200   0.0000096
1.79700   0.0000083
1.80200   0.0000093
1.80700   0.0000098
1.81200   0.0000104
1.81700   0.0000094
1.82200   0.0000093
1.82700   0.0000102
1.83200   0.0000092
1.83700   0.0000090
1.84200   0.0000098
1.84700   0.0000096
1.85200   0.0000085
1.85700   0.0000105
1.86200   0.0000088
1.86700   0.0000111
1.87200   0.0000078
1.87700   0.0000120
1.88200   0.0000104
1.88700   0.0000125
1.89200   0.0000112
1.89700   0.0000107
1.90200   0.0000111
1.90700   0.0000117
1.91200   0.0000114
