# New G.A.S. format
# filter of F277W
# download from  "Filter Profile Service" (http://svo2.cab.inta-csic.es/theory/fps)
# Wavelenght table as been reduced by a factor 11
# After the "START" signal, the file is bild as follow:
# Filter name
# nwave: number of wavelenght
# center wavelenght [micron]
# and for l=1 to nwave, lambda [micron] | transmission [without unit]
START
F277W
130
2.76200
2.31790   0.0000120
2.32990   0.0000473
2.34310   0.0001620
2.35630   0.0008140
2.36950   0.0073300
2.38270   0.0364000
2.39590   0.0814000
2.40910   0.2980000
2.42230   0.6940000
2.43560   0.7160000
2.44880   0.7450000
2.46200   0.7700000
2.47520   0.8000000
2.48840   0.8120000
2.50160   0.8020000
2.51480   0.7890000
2.52800   0.7770000
2.54120   0.7750000
2.55450   0.7900000
2.56770   0.8090000
2.58090   0.8190000
2.59410   0.8270000
2.60730   0.8310000
2.62050   0.8290000
2.63370   0.8230000
2.64690   0.8160000
2.66010   0.8130000
2.67340   0.8150000
2.68660   0.8140000
2.69980   0.8170000
2.71300   0.8240000
2.72620   0.8280000
2.73940   0.8270000
2.75260   0.8210000
2.76580   0.8180000
2.77900   0.8200000
2.79220   0.8280000
2.80550   0.8350000
2.81870   0.8360000
2.83190   0.8340000
2.84510   0.8340000
2.85830   0.8380000
2.87150   0.8430000
2.88470   0.8470000
2.89790   0.8500000
2.91110   0.8480000
2.92440   0.8400000
2.93760   0.8310000
2.95080   0.8240000
2.96400   0.8250000
2.97720   0.8300000
2.99040   0.8340000
3.00360   0.8350000
3.01680   0.8370000
3.03000   0.8420000
3.04320   0.8460000
3.05650   0.8450000
3.06970   0.8410000
3.08290   0.8390000
3.09610   0.8430000
3.10930   0.8400000
3.12250   0.7720000
3.13570   0.5710000
3.14890   0.3160000
3.16210   0.1490000
3.17540   0.0707000
3.18860   0.0369000
3.20180   0.0214000
3.21500   0.0136000
3.22820   0.0089900
3.24140   0.0059600
3.25460   0.0037700
3.26780   0.0022400
3.28100   0.0012500
3.29420   0.0006990
3.30750   0.0003960
3.32070   0.0002470
3.33390   0.0001790
3.34710   0.0001440
3.36030   0.0001210
3.37350   0.0001110
3.38670   0.0001120
3.39990   0.0001060
3.41310   0.0001200
3.42640   0.0001430
3.43960   0.0001600
3.45280   0.0001770
3.46600   0.0001890
3.47920   0.0001720
3.49240   0.0001660
3.50560   0.0001530
3.51880   0.0001390
3.53200   0.0001230
3.54530   0.0001190
3.55850   0.0001250
3.57170   0.0001140
3.58490   0.0001100
3.59810   0.0000972
3.61130   0.0000927
3.62450   0.0001040
3.63770   0.0001130
3.65090   0.0001260
3.66410   0.0001300
3.67740   0.0001320
3.69060   0.0001180
3.70380   0.0001080
3.71700   0.0000856
3.73020   0.0000689
3.74340   0.0000619
3.75660   0.0000503
3.76980   0.0000552
3.78300   0.0000507
3.79630   0.0000590
3.80950   0.0000634
3.82270   0.0000765
3.83590   0.0000832
3.84910   0.0000748
3.86230   0.0000673
3.87550   0.0000540
3.88870   0.0000487
3.90190   0.0000571
3.91510   0.0000561
3.92840   0.0000530
3.94160   0.0000426
3.95480   0.0000292
3.96800   0.0000239
3.98120   0.0000201
3.99440   0.0000132
4.00760   0.0000230
4.02080   0.0000171
